                               #Distance(A) Planar-Average-Potential(eV)/Densitiy(e/A)
  0.0000    0.22755910E+01
  0.0625    0.22759774E+01
  0.1250    0.22763487E+01
  0.1875    0.22767351E+01
  0.2500    0.22771065E+01
  0.3125    0.22774929E+01
  0.3750    0.22778642E+01
  0.4375    0.22782506E+01
  0.5000    0.22786219E+01
  0.5625    0.22790083E+01
  0.6250    0.22793796E+01
  0.6875    0.22797660E+01
  0.7500    0.22801374E+01
  0.8125    0.22805238E+01
  0.8750    0.22808952E+01
  0.9375    0.22812816E+01
  1.0000    0.22816531E+01
  1.0625    0.22820395E+01
  1.1250    0.22824109E+01
  1.1875    0.22827973E+01
  1.2500    0.22831687E+01
  1.3125    0.22835551E+01
  1.3750    0.22839266E+01
  1.4375    0.22843130E+01
  1.5000    0.22846845E+01
  1.5625    0.22850709E+01
  1.6250    0.22854423E+01
  1.6875    0.22858287E+01
  1.7500    0.22862002E+01
  1.8125    0.22865866E+01
  1.8750    0.22869581E+01
  1.9375    0.22873444E+01
  2.0000    0.22877159E+01
  2.0625    0.22881023E+01
  2.1250    0.22884737E+01
  2.1875    0.22888600E+01
  2.2500    0.22892315E+01
  2.3125    0.22896178E+01
  2.3750    0.22899892E+01
  2.4375    0.22903755E+01
  2.5000    0.22907468E+01
  2.5625    0.22911330E+01
  2.6250    0.22915043E+01
  2.6875    0.22918904E+01
  2.7500    0.22922615E+01
  2.8125    0.22926474E+01
  2.8750    0.22930184E+01
  2.9375    0.22934041E+01
  3.0000    0.22937748E+01
  3.0625    0.22941602E+01
  3.1250    0.22945305E+01
  3.1875    0.22949156E+01
  3.2500    0.22952855E+01
  3.3125    0.22956700E+01
  3.3750    0.22960391E+01
  3.4375    0.22964227E+01
  3.5000    0.22967909E+01
  3.5625    0.22971732E+01
  3.6250    0.22975397E+01
  3.6875    0.22979202E+01
  3.7500    0.22982845E+01
  3.8125    0.22986623E+01
  3.8750    0.22990234E+01
  3.9375    0.22993974E+01
  4.0000    0.22997539E+01
  4.0625    0.23001225E+01
  4.1250    0.23004724E+01
  4.1875    0.23008332E+01
  4.2500    0.23011738E+01
  4.3125    0.23015236E+01
  4.3750    0.23018509E+01
  4.4375    0.23021849E+01
  4.5000    0.23024931E+01
  4.5625    0.23028046E+01
  4.6250    0.23030857E+01
  4.6875    0.23033650E+01
  4.7500    0.23036075E+01
  4.8125    0.23038408E+01
  4.8750    0.23040281E+01
  4.9375    0.23041956E+01
  5.0000    0.23043040E+01
  5.0625    0.23043775E+01
  5.1250    0.23043731E+01
  5.1875    0.23043121E+01
  5.2500    0.23041466E+01
  5.3125    0.23038934E+01
  5.3750    0.23034972E+01
  5.4375    0.23029689E+01
  5.5000    0.23022429E+01
  5.5625    0.23013209E+01
  5.6250    0.23001230E+01
  5.6875    0.22986376E+01
  5.7500    0.22967646E+01
  5.8125    0.22944728E+01
  5.8750    0.22916333E+01
  5.9375    0.22881870E+01
  6.0000    0.22839636E+01
  6.0625    0.22788639E+01
  6.1250    0.22726589E+01
  6.1875    0.22651916E+01
  6.2500    0.22561483E+01
  6.3125    0.22452893E+01
  6.3750    0.22321785E+01
  6.4375    0.22164590E+01
  6.5000    0.21975176E+01
  6.5625    0.21748329E+01
  6.6250    0.21475334E+01
  6.6875    0.21148722E+01
  6.7500    0.20755918E+01
  6.8125    0.20286557E+01
  6.8750    0.19721944E+01
  6.9375    0.19049090E+01
  7.0000    0.18236811E+01
  7.0625    0.17325129E+01
  7.1250    0.16373033E+01
  7.1875    0.15220077E+01
  7.2500    0.13713858E+01
  7.3125    0.11715046E+01
  7.3750    0.90745039E+00
  7.4375    0.56722053E+00
  7.5000    0.14434446E+00
  7.5625   -0.35933830E+00
  7.6250   -0.91717905E+00
  7.6875   -0.15404560E+01
  7.7500   -0.22638290E+01
  7.8125   -0.31042408E+01
  7.8750   -0.40564996E+01
  7.9375   -0.50917214E+01
  8.0000   -0.61660274E+01
  8.0625   -0.72283207E+01
  8.1250   -0.82303281E+01
  8.1875   -0.91319481E+01
  8.2500   -0.99059395E+01
  8.3125   -0.10538447E+02
  8.3750   -0.11029167E+02
  8.4375   -0.11388404E+02
  8.5000   -0.11634029E+02
  8.5625   -0.11786172E+02
  8.6250   -0.11862691E+02
  8.6875   -0.11874135E+02
  8.7500   -0.11821418E+02
  8.8125   -0.11695003E+02
  8.8750   -0.11477623E+02
  8.9375   -0.11148084E+02
  9.0000   -0.10686844E+02
  9.0625   -0.10080650E+02
  9.1250   -0.93270550E+01
  9.1875   -0.84368357E+01
  9.2500   -0.74354557E+01
  9.3125   -0.63619933E+01
  9.3750   -0.52663995E+01
  9.4375   -0.42037588E+01
  9.5000   -0.32264833E+01
  9.5625   -0.23752113E+01
  9.6250   -0.16702252E+01
  9.6875   -0.11093949E+01
  9.7500   -0.66652954E+00
  9.8125   -0.30548376E+00
  9.8750   -0.43297862E-01
  9.9375    0.10138966E+00
 10.0000    0.12599645E+00
 10.0625    0.30906480E-01
 10.1250   -0.18496409E+00
 10.1875   -0.51298058E+00
 10.2500   -0.94234930E+00
 10.3125   -0.14626820E+01
 10.3750   -0.20642297E+01
 10.4375   -0.27661884E+01
 10.5000   -0.35831692E+01
 10.5625   -0.45102646E+01
 10.6250   -0.55225418E+01
 10.6875   -0.65795870E+01
 10.7500   -0.76330103E+01
 10.8125   -0.86348470E+01
 10.8750   -0.95438130E+01
 10.9375   -0.10329686E+02
 11.0000   -0.10974927E+02
 11.0625   -0.11474879E+02
 11.1250   -0.11835936E+02
 11.1875   -0.12072779E+02
 11.2500   -0.12204150E+02
 11.3125   -0.12248462E+02
 11.3750   -0.12219236E+02
 11.4375   -0.12122102E+02
 11.5000   -0.11953429E+02
 11.5625   -0.11701696E+02
 11.6250   -0.11350461E+02
 11.6875   -0.10882907E+02
 11.7500   -0.10286142E+02
 11.8125   -0.95553856E+01
 11.8750   -0.86965759E+01
 11.9375   -0.77281413E+01
 12.0000   -0.66805919E+01
 12.0625   -0.55948835E+01
 12.1250   -0.45178801E+01
 12.1875   -0.34964578E+01
 12.2500   -0.25692157E+01
 12.3125   -0.17595067E+01
 12.3750   -0.10702394E+01
 12.4375   -0.48567555E+00
 12.5000    0.19944493E-01
 12.5625    0.44596459E+00
 12.6250    0.78314932E+00
 12.6875    0.10420458E+01
 12.7500    0.12379782E+01
 12.8125    0.13878692E+01
 12.8750    0.15071312E+01
 12.9375    0.16154720E+01
 13.0000    0.17160502E+01
 13.0625    0.18011451E+01
 13.1250    0.18724095E+01
 13.1875    0.19320390E+01
 13.2500    0.19819855E+01
 13.3125    0.20237913E+01
 13.3750    0.20588118E+01
 13.4375    0.20881475E+01
 13.5000    0.21127327E+01
 13.5625    0.21333509E+01
 13.6250    0.21506439E+01
 13.6875    0.21651704E+01
 13.7500    0.21773687E+01
 13.8125    0.21876392E+01
 13.8750    0.21962781E+01
 13.9375    0.22035747E+01
 14.0000    0.22097261E+01
 14.0625    0.22149439E+01
 14.1250    0.22193563E+01
 14.1875    0.22231208E+01
 14.2500    0.22263175E+01
 14.3125    0.22290661E+01
 14.3750    0.22314130E+01
 14.4375    0.22334512E+01
 14.5000    0.22352039E+01
 14.5625    0.22367454E+01
 14.6250    0.22380825E+01
 14.6875    0.22392767E+01
 14.7500    0.22403232E+01
 14.8125    0.22412746E+01
 14.8750    0.22421180E+01
 14.9375    0.22428996E+01
 15.0000    0.22436009E+01
 15.0625    0.22442637E+01
 15.1250    0.22448657E+01
 15.1875    0.22454455E+01
 15.2500    0.22459780E+01
 15.3125    0.22464998E+01
 15.3750    0.22469837E+01
 15.4375    0.22474648E+01
 15.5000    0.22479147E+01
 15.5625    0.22483674E+01
 15.6250    0.22487936E+01
 15.6875    0.22492264E+01
 15.7500    0.22496359E+01
 15.8125    0.22500547E+01
 15.8750    0.22504526E+01
 15.9375    0.22508617E+01
 16.0000    0.22512514E+01
 16.0625    0.22516537E+01
 16.1250    0.22520377E+01
 16.1875    0.22524352E+01
 16.2500    0.22528153E+01
 16.3125    0.22532095E+01
 16.3750    0.22535867E+01
 16.4375    0.22539785E+01
 16.5000    0.22543538E+01
 16.5625    0.22547441E+01
 16.6250    0.22551181E+01
 16.6875    0.22555072E+01
 16.7500    0.22558803E+01
 16.8125    0.22562686E+01
 16.8750    0.22566410E+01
 16.9375    0.22570288E+01
 17.0000    0.22574010E+01
 17.0625    0.22577884E+01
 17.1250    0.22581603E+01
 17.1875    0.22585475E+01
 17.2500    0.22589191E+01
 17.3125    0.22593061E+01
 17.3750    0.22596775E+01
 17.4375    0.22600644E+01
 17.5000    0.22604357E+01
 17.5625    0.22608225E+01
 17.6250    0.22611937E+01
 17.6875    0.22615804E+01
 17.7500    0.22619517E+01
 17.8125    0.22623383E+01
 17.8750    0.22627095E+01
 17.9375    0.22630961E+01
 18.0000    0.22634673E+01
 18.0625    0.22638539E+01
 18.1250    0.22642251E+01
 18.1875    0.22646116E+01
 18.2500    0.22649828E+01
 18.3125    0.22653693E+01
 18.3750    0.22657405E+01
 18.4375    0.22661270E+01
 18.5000    0.22664982E+01
 18.5625    0.22668847E+01
 18.6250    0.22672559E+01
 18.6875    0.22676424E+01
 18.7500    0.22680136E+01
 18.8125    0.22684001E+01
 18.8750    0.22687713E+01
 18.9375    0.22691578E+01
 19.0000    0.22695290E+01
 19.0625    0.22699154E+01
 19.1250    0.22702867E+01
 19.1875    0.22706731E+01
 19.2500    0.22710443E+01
 19.3125    0.22714308E+01
 19.3750    0.22718021E+01
 19.4375    0.22721886E+01
 19.5000    0.22725599E+01
 19.5625    0.22729464E+01
 19.6250    0.22733177E+01
 19.6875    0.22737042E+01
 19.7500    0.22740755E+01
 19.8125    0.22744619E+01
 19.8750    0.22748332E+01
 19.9375    0.22752197E+01
